Angle=0.mrad, 1.5GeV, 400.mA, 1.04T
 Photon Energy (eV), Photons/sec/mr^2/0.1%BW
   10.0000  1.198732E+12
   39.9800  3.002300E+12
   69.9600  4.327647E+12
   99.9400  5.443385E+12
   129.920  6.424850E+12
   159.900  7.307322E+12
   189.880  8.111096E+12
   219.860  8.849315E+12
   249.840  9.531187E+12
   279.820  1.016353E+13
   309.800  1.075160E+13
   339.780  1.129962E+13
   369.760  1.181103E+13
   399.740  1.228871E+13
   429.720  1.273514E+13
   459.700  1.315247E+13
   489.680  1.354255E+13
   519.660  1.390707E+13
   549.640  1.424750E+13
   579.620  1.456520E+13
   609.600  1.486140E+13
   639.580  1.513721E+13
   669.560  1.539367E+13
   699.540  1.563174E+13
   729.520  1.585231E+13
   759.500  1.605620E+13
   789.480  1.624419E+13
   819.460  1.641702E+13
   849.440  1.657536E+13
   879.420  1.671986E+13
   909.400  1.685113E+13
   939.380  1.696976E+13
   969.360  1.707629E+13
   999.340  1.717124E+13
   1029.32  1.725513E+13
   1059.30  1.732842E+13
   1089.28  1.739156E+13
   1119.26  1.744498E+13
   1149.24  1.748911E+13
   1179.22  1.752433E+13
   1209.20  1.755103E+13
   1239.18  1.756958E+13
   1269.16  1.758031E+13
   1299.14  1.758357E+13
   1329.12  1.757968E+13
   1359.10  1.756895E+13
   1389.08  1.755167E+13
   1419.06  1.752814E+13
   1449.04  1.749862E+13
   1479.02  1.746338E+13
   1509.00  1.742268E+13
   1538.98  1.737677E+13
   1568.96  1.732587E+13
   1598.94  1.727023E+13
   1628.92  1.721005E+13
   1658.90  1.714555E+13
   1688.88  1.707693E+13
   1718.86  1.700441E+13
   1748.84  1.692814E+13
   1778.82  1.684834E+13
   1808.80  1.676517E+13
   1838.78  1.667879E+13
   1868.76  1.658938E+13
   1898.74  1.649709E+13
   1928.72  1.640209E+13
   1958.70  1.630451E+13
   1988.68  1.620450E+13
   2018.66  1.610218E+13
   2048.64  1.599772E+13
   2078.62  1.589121E+13
   2108.60  1.578279E+13
   2138.58  1.567257E+13
   2168.56  1.556069E+13
   2198.54  1.544723E+13
   2228.52  1.533231E+13
   2258.50  1.521604E+13
   2288.48  1.509850E+13
   2318.46  1.497981E+13
   2348.44  1.486003E+13
   2378.42  1.473928E+13
   2408.40  1.461763E+13
   2438.38  1.449516E+13
   2468.36  1.437196E+13
   2498.34  1.424811E+13
   2528.32  1.412366E+13
   2558.30  1.399870E+13
   2588.28  1.387329E+13
   2618.26  1.374751E+13
   2648.24  1.362141E+13
   2678.22  1.349504E+13
   2708.20  1.336849E+13
   2738.18  1.324178E+13
   2768.16  1.311500E+13
   2798.14  1.298817E+13
   2828.12  1.286136E+13
   2858.10  1.273461E+13
   2888.08  1.260796E+13
   2918.06  1.248147E+13
   2948.04  1.235517E+13
   2978.02  1.222910E+13
   3008.00  1.210331E+13
   3037.98  1.197783E+13
   3067.96  1.185269E+13
   3097.94  1.172792E+13
   3127.92  1.160357E+13
   3157.90  1.147967E+13
   3187.88  1.135623E+13
   3217.86  1.123330E+13
   3247.84  1.111089E+13
   3277.82  1.098904E+13
   3307.80  1.086776E+13
   3337.78  1.074709E+13
   3367.76  1.062704E+13
   3397.74  1.050764E+13
   3427.72  1.038890E+13
   3457.70  1.027084E+13
   3487.68  1.015348E+13
   3517.66  1.003684E+13
   3547.64  9.920938E+12
   3577.62  9.805785E+12
   3607.60  9.691396E+12
   3637.58  9.577783E+12
   3667.56  9.464962E+12
   3697.54  9.352941E+12
   3727.52  9.241734E+12
   3757.50  9.131353E+12
   3787.48  9.021801E+12
   3817.46  8.913093E+12
   3847.44  8.805236E+12
   3877.42  8.698235E+12
   3907.40  8.592101E+12
   3937.38  8.486835E+12
   3967.36  8.382448E+12
   3997.34  8.278943E+12
   4027.32  8.176326E+12
   4057.30  8.074600E+12
   4087.28  7.973767E+12
   4117.26  7.873835E+12
   4147.24  7.774803E+12
   4177.22  7.676677E+12
   4207.20  7.579451E+12
   4237.18  7.483134E+12
   4267.16  7.387725E+12
   4297.14  7.293223E+12
   4327.12  7.199633E+12
   4357.10  7.106951E+12
   4387.08  7.015176E+12
   4417.06  6.924310E+12
   4447.04  6.834350E+12
   4477.02  6.745299E+12
   4507.00  6.657150E+12
   4536.98  6.569902E+12
   4566.96  6.483552E+12
   4596.94  6.398105E+12
   4626.92  6.313549E+12
   4656.90  6.229886E+12
   4686.88  6.147112E+12
   4716.86  6.065225E+12
   4746.84  5.984219E+12
   4776.82  5.904092E+12
   4806.80  5.824838E+12
   4836.78  5.746457E+12
   4866.76  5.668941E+12
   4896.74  5.592288E+12
   4926.72  5.516491E+12
   4956.70  5.441549E+12
   4986.68  5.367453E+12
   5016.66  5.294199E+12
   5046.64  5.221784E+12
   5076.62  5.150202E+12
   5106.60  5.079448E+12
   5136.58  5.009517E+12
   5166.56  4.940399E+12
   5196.54  4.872095E+12
   5226.52  4.804596E+12
   5256.50  4.737894E+12
   5286.48  4.671987E+12
   5316.46  4.606868E+12
   5346.44  4.542530E+12
   5376.42  4.478969E+12
   5406.40  4.416176E+12
   5436.38  4.354147E+12
   5466.36  4.292876E+12
   5496.34  4.232354E+12
   5526.32  4.172579E+12
   5556.30  4.113541E+12
   5586.28  4.055235E+12
   5616.26  3.997654E+12
   5646.24  3.940792E+12
   5676.22  3.884644E+12
   5706.20  3.829202E+12
   5736.18  3.774459E+12
   5766.16  3.720410E+12
   5796.14  3.667048E+12
   5826.12  3.614368E+12
   5856.10  3.562360E+12
   5886.08  3.511020E+12
   5916.06  3.460340E+12
   5946.04  3.410315E+12
   5976.02  3.360940E+12
   6006.00  3.312203E+12
   6035.98  3.264103E+12
   6065.96  3.216632E+12
   6095.94  3.169781E+12
   6125.92  3.123547E+12
   6155.90  3.077923E+12
   6185.88  3.032902E+12
   6215.86  2.988476E+12
   6245.84  2.944642E+12
   6275.82  2.901390E+12
   6305.80  2.858717E+12
   6335.78  2.816615E+12
   6365.76  2.775077E+12
   6395.74  2.734098E+12
   6425.72  2.693674E+12
   6455.70  2.653795E+12
   6485.68  2.614457E+12
   6515.66  2.575652E+12
   6545.64  2.537375E+12
   6575.62  2.499621E+12
   6605.60  2.462384E+12
   6635.58  2.425658E+12
   6665.56  2.389436E+12
   6695.54  2.353711E+12
   6725.52  2.318479E+12
   6755.50  2.283735E+12
   6785.48  2.249472E+12
   6815.46  2.215685E+12
   6845.44  2.182368E+12
   6875.42  2.149515E+12
   6905.40  2.117120E+12
   6935.38  2.085179E+12
   6965.36  2.053685E+12
   6995.34  2.022634E+12
   7025.32  1.992019E+12
   7055.30  1.961835E+12
   7085.28  1.932079E+12
   7115.26  1.902744E+12
   7145.24  1.873824E+12
   7175.22  1.845314E+12
   7205.20  1.817210E+12
   7235.18  1.789506E+12
   7265.16  1.762197E+12
   7295.14  1.735278E+12
   7325.12  1.708745E+12
   7355.10  1.682593E+12
   7385.08  1.656816E+12
   7415.06  1.631409E+12
   7445.04  1.606370E+12
   7475.02  1.581691E+12
   7505.00  1.557369E+12
   7534.98  1.533400E+12
   7564.96  1.509777E+12
   7594.94  1.486497E+12
   7624.92  1.463556E+12
   7654.90  1.440949E+12
   7684.88  1.418672E+12
   7714.86  1.396720E+12
   7744.84  1.375089E+12
   7774.82  1.353775E+12
   7804.80  1.332774E+12
   7834.78  1.312080E+12
   7864.76  1.291691E+12
   7894.74  1.271602E+12
   7924.72  1.251810E+12
   7954.70  1.232310E+12
   7984.68  1.213097E+12
   8014.66  1.194170E+12
   8044.64  1.175522E+12
   8074.62  1.157151E+12
   8104.60  1.139053E+12
   8134.58  1.121225E+12
   8164.56  1.103662E+12
   8194.54  1.086361E+12
   8224.52  1.069319E+12
   8254.50  1.052530E+12
   8284.48  1.035994E+12
   8314.46  1.019704E+12
   8344.44  1.003660E+12
   8374.42  9.878557E+11
   8404.40  9.722901E+11
   8434.38  9.569575E+11
   8464.36  9.418563E+11
   8494.34  9.269834E+11
   8524.32  9.123348E+11
   8554.30  8.979075E+11
   8584.28  8.836988E+11
   8614.26  8.697055E+11
   8644.24  8.559237E+11
   8674.22  8.423517E+11
   8704.20  8.289852E+11
   8734.18  8.158230E+11
   8764.16  8.028607E+11
   8794.14  7.900963E+11
   8824.12  7.775260E+11
   8854.10  7.651485E+11
   8884.08  7.529593E+11
   8914.06  7.409575E+11
   8944.04  7.291388E+11
   8974.02  7.175016E+11
   9004.00  7.060429E+11
   9033.98  6.947606E+11
   9063.96  6.836508E+11
   9093.94  6.727130E+11
   9123.92  6.619430E+11
   9153.90  6.513392E+11
   9183.88  6.408993E+11
   9213.86  6.306202E+11
   9243.84  6.205001E+11
   9273.82  6.105363E+11
   9303.80  6.007270E+11
   9333.78  5.910700E+11
   9363.76  5.815626E+11
   9393.74  5.722027E+11
   9423.72  5.629884E+11
   9453.70  5.539170E+11
   9483.68  5.449870E+11
   9513.66  5.361960E+11
   9543.64  5.275424E+11
   9573.62  5.190232E+11
   9603.60  5.106373E+11
   9633.58  5.023825E+11
   9663.56  4.942570E+11
   9693.54  4.862580E+11
   9723.52  4.783849E+11
   9753.50  4.706346E+11
   9783.48  4.630064E+11
   9813.46  4.554975E+11
   9843.44  4.481068E+11
   9873.42  4.408322E+11
   9903.40  4.336722E+11
   9933.38  4.266245E+11
   9963.36  4.196883E+11
   9993.34  4.128611E+11
   10023.3  4.061418E+11
   10053.3  3.995288E+11
   10083.3  3.930198E+11
   10113.3  3.866140E+11
   10143.2  3.803093E+11
   10173.2  3.741048E+11
   10203.2  3.679984E+11
   10233.2  3.619888E+11
   10263.2  3.560746E+11
   10293.1  3.502544E+11
   10323.1  3.445263E+11
   10353.1  3.388895E+11
   10383.1  3.333422E+11
   10413.1  3.278834E+11
   10443.0  3.225115E+11
   10473.0  3.172251E+11
   10503.0  3.120231E+11
   10533.0  3.069041E+11
   10563.0  3.018668E+11
   10592.9  2.969100E+11
   10622.9  2.920323E+11
   10652.9  2.872329E+11
   10682.9  2.825102E+11
   10712.9  2.778631E+11
   10742.8  2.732904E+11
   10772.8  2.687910E+11
   10802.8  2.643640E+11
   10832.8  2.600079E+11
   10862.8  2.557219E+11
   10892.7  2.515047E+11
   10922.7  2.473556E+11
   10952.7  2.432728E+11
   10982.7  2.392561E+11
   11012.7  2.353038E+11
   11042.6  2.314155E+11
   11072.6  2.275898E+11
   11102.6  2.238258E+11
   11132.6  2.201225E+11
   11162.6  2.164793E+11
   11192.5  2.128947E+11
   11222.5  2.093682E+11
   11252.5  2.058987E+11
   11282.5  2.024854E+11
   11312.5  1.991274E+11
   11342.4  1.958238E+11
   11372.4  1.925738E+11
   11402.4  1.893765E+11
   11432.4  1.862310E+11
   11462.4  1.831368E+11
   11492.3  1.800926E+11
   11522.3  1.770981E+11
   11552.3  1.741523E+11
   11582.3  1.712543E+11
   11612.3  1.684036E+11
   11642.2  1.655992E+11
   11672.2  1.628407E+11
   11702.2  1.601270E+11
   11732.2  1.574577E+11
   11762.2  1.548318E+11
   11792.1  1.522490E+11
   11822.1  1.497081E+11
   11852.1  1.472090E+11
   11882.1  1.447506E+11
   11912.1  1.423325E+11
   11942.0  1.399539E+11
   11972.0  1.376144E+11
   12002.0  1.353130E+11
   12032.0  1.330495E+11
   12062.0  1.308230E+11
   12091.9  1.286331E+11
   12121.9  1.264791E+11
   12151.9  1.243605E+11
   12181.9  1.222766E+11
   12211.9  1.202270E+11
   12241.8  1.182111E+11
   12271.8  1.162284E+11
   12301.8  1.142783E+11
   12331.8  1.123602E+11
   12361.8  1.104738E+11
   12391.7  1.086184E+11
   12421.7  1.067937E+11
   12451.7  1.049990E+11
   12481.7  1.032339E+11
   12511.7  1.014980E+11
   12541.6  9.979066E+10
   12571.6  9.811157E+10
   12601.6  9.646021E+10
   12631.6  9.483615E+10
   12661.6  9.323896E+10
   12691.5  9.166818E+10
   12721.5  9.012347E+10
   12751.5  8.860416E+10
   12781.5  8.711021E+10
   12811.5  8.564084E+10
   12841.4  8.419596E+10
   12871.4  8.277498E+10
   12901.4  8.137759E+10
   12931.4  8.000337E+10
   12961.4  7.865195E+10
   12991.3  7.732298E+10
   13021.3  7.601609E+10
   13051.3  7.473094E+10
   13081.3  7.346713E+10
   13111.3  7.222437E+10
   13141.2  7.100227E+10
   13171.2  6.980051E+10
   13201.2  6.861875E+10
   13231.2  6.745667E+10
   13261.2  6.631396E+10
   13291.1  6.519031E+10
   13321.1  6.408541E+10
   13351.1  6.299895E+10
   13381.1  6.193055E+10
   13411.1  6.088005E+10
   13441.0  5.984703E+10
   13471.0  5.883134E+10
   13501.0  5.783259E+10
   13531.0  5.685051E+10
   13561.0  5.588486E+10
   13590.9  5.493538E+10
   13620.9  5.400177E+10
   13650.9  5.308379E+10
   13680.9  5.218118E+10
   13710.9  5.129369E+10
   13740.8  5.042106E+10
   13770.8  4.956306E+10
   13800.8  4.871945E+10
   13830.8  4.788998E+10
   13860.8  4.707443E+10
   13890.7  4.627257E+10
   13920.7  4.548417E+10
   13950.7  4.470901E+10
   13980.7  4.394691E+10
   14010.7  4.319753E+10
   14040.6  4.246082E+10
   14070.6  4.173644E+10
   14100.6  4.102430E+10
   14130.6  4.032411E+10
   14160.6  3.963571E+10
   14190.5  3.895889E+10
   14220.5  3.829348E+10
   14250.5  3.763927E+10
   14280.5  3.699609E+10
   14310.5  3.636374E+10
   14340.4  3.574206E+10
   14370.4  3.513085E+10
   14400.4  3.452997E+10
   14430.4  3.393922E+10
   14460.4  3.335848E+10
   14490.3  3.278748E+10
   14520.3  3.222619E+10
   14550.3  3.167432E+10
   14580.3  3.113183E+10
   14610.3  3.059849E+10
   14640.2  3.007412E+10
   14670.2  2.955869E+10
   14700.2  2.905194E+10
   14730.2  2.855380E+10
   14760.2  2.806407E+10
   14790.1  2.758264E+10
   14820.1  2.710936E+10
   14850.1  2.664410E+10
   14880.1  2.618673E+10
   14910.1  2.573710E+10
   14940.0  2.529510E+10
   14970.0  2.486060E+10
   15000.0  2.443347E+10
